Timestamp	HR	SDNN	RMSSD
1723036194.0	92	N/A	N/A
1723036195.0	92	N/A	N/A
1723036199.0	95	1.5000	3.0000
1723036212.0	92	5.0990	6.7082
1723036224.0	95	5.1235	5.5076
1723036232.0	98	4.5869	5.1720
1723036241.0	90	4.2197	4.6476
1723036242.0	87	4.5803	5.3541
1723036257.0	84	5.0606	7.2506
1723036263.0	81	4.8074	7.4917
1723036278.0	84	5.0636	7.6739
1723036280.0	89	5.1666	8.3606
1723036281.0	89	5.2935	7.9772
1723036316.0	92	8.9747	12.4365
1723036346.0	95	10.1479	12.0288
1723036350.0	92	9.9519	13.5145
1723036369.0	95	9.8582	13.6186
1723036370.0	98	9.8455	13.9329
1723036371.0	101	9.8050	13.5169
1723036379.0	96	9.5523	13.2393
1723036381.0	93	9.4619	12.9595
1723036383.0	90	9.3656	12.6313
1723036388.0	87	9.1881	12.3443
1723036396.0	84	8.9877	12.0774
1723036404.0	88	8.7999	11.8119
1723036407.0	91	8.6954	11.6082
1723036414.0	87	8.5315	11.4018
1723036415.0	84	8.4898	11.2421
1723036424.0	81	8.3382	11.1389
1723036461.0	84	9.7322	12.1508
1723036503.0	88	11.2343	11.9755
1723036506.0	91	11.1266	13.7598
1723036526.0	88	11.0870	13.8762
1723036532.0	87	10.9435	13.8801
1723036577.0	84	12.2770	15.2614
1723036579.0	81	12.1984	16.7464
1723036583.0	84	12.0826	16.5089
1723036595.0	89	11.9198	16.3325
1723036603.0	85	11.7707	16.1237
1723036605.0	82	11.7011	15.9399
1723036616.0	85	11.5541	15.8000
1723036656.0	88	12.2833	16.2612
1723036682.0	91	12.3422	16.2098
1723036684.0	94	12.2837	16.4382
1723036685.0	97	12.2418	16.2466
1723036688.0	100	12.1646	16.0638
1723036692.0	97	12.0746	15.8850
1723036694.0	93	12.0132	15.7142
1723036701.0	90	11.8987	15.5632
1723036759.0	86	13.5528	17.0691
1723036776.0	87	13.4384	17.8806
1723036798.0	84	13.3833	17.7150
1723036804.0	81	13.2783	17.6829
1723036834.0	84	13.3852	17.8255
1723036839.0	81	13.2950	17.9874
1723036857.0	84	13.1984	17.9077
1723036861.0	79	13.1234	17.8443
1723036863.0	76	13.0727	17.6863
1723036866.0	79	13.0093	17.5309
1723036869.0	82	12.9461	17.3791
1723036877.0	85	12.8454	17.2435
1723036906.0	88	12.9345	17.3128
1723036944.0	91	13.2515	17.2089
1723036949.0	87	13.1758	17.5766
1723036951.0	84	13.1310	17.4406
1723036957.0	81	13.0493	17.3110
1723036974.0	84	12.9661	17.2315
1723036982.0	81	12.8773	17.1363
1723037033.0	84	13.6270	17.8007
1723037093.0	80	14.6782	17.7030
1723037127.0	83	14.7839	17.8508
1723037131.0	86	14.7205	18.0820
1723037138.0	89	14.6359	17.9577
1723037161.0	86	14.5807	17.9320
1723037181.0	83	14.5028	17.8122
1723037201.0	86	14.4261	17.6914
1723037238.0	90	14.5804	17.6824
1723037240.0	93	14.5463	18.0186
1723037250.0	90	14.4583	17.9244
1723037252.0	86	14.4243	17.8322
1723037271.0	83	14.3474	17.8219
1723037273.0	79	14.3147	17.8119
1723037278.0	82	14.2564	17.7047
1723037280.0	90	14.2230	17.5995
1723037282.0	93	14.1891	17.4932
1723037295.0	90	14.1054	17.4301
1723037296.0	87	14.0816	17.3761
1723037297.0	87	14.0569	17.2748
1723037304.0	82	13.9898	17.1873
1723037308.0	79	13.9406	17.0923
1723037333.0	82	13.9245	17.1412
1723037364.0	85	13.9792	17.0574
1723037371.0	82	13.9163	17.1490
1723037378.0	85	13.8542	17.0555
1723037382.0	88	13.8094	16.9664
1723037387.0	85	13.7586	16.8763
1723037395.0	88	13.6946	16.7900
1723037431.0	85	13.8289	16.9451
1723037444.0	81	13.7582	17.0185
1723037458.0	77	13.6891	16.9317
1723037483.0	74	13.6747	16.8822
1723037504.0	77	13.6305	16.8024
1723037511.0	80	13.5763	16.7769
1723037539.0	83	13.5910	16.8235
1723037560.0	86	13.5477	16.7558
1723037572.0	83	13.4835	16.6984
1723037580.0	86	13.4288	16.6233
1723037593.0	83	13.3659	16.5518
1723037611.0	80	13.3123	16.4814
1723037682.0	83	14.3542	17.1793
1723037697.0	79	14.2894	17.9218
1723037698.0	79	14.2751	17.8901
1723037760.0	82	14.9242	18.7268
1723037762.0	85	14.9003	19.4860
1723037795.0	81	14.9416	19.6176
1723037798.0	78	14.9118	19.7324
1723037808.0	81	14.8519	19.6573
1723037810.0	84	14.8289	19.5865
1723037816.0	87	14.7833	19.5061
1723037829.0	84	14.7212	19.4339
1723037835.0	81	14.6766	19.3627
1723037866.0	84	14.6997	19.4165
1723037878.0	80	14.6403	19.4131
1723037884.0	77	14.5975	19.3410
1723037893.0	80	14.5447	19.2641
1723037900.0	77	14.4987	19.1871
1723037920.0	80	14.4520	19.1455
1723037922.0	84	14.4321	19.1367
1723037940.0	87	14.3808	19.1140
1723037950.0	84	14.3285	19.0524
1723037955.0	80	14.2931	18.9835
1723037958.0	77	14.2680	18.9111
1723037963.0	80	14.2328	18.8396
1723037986.0	77	14.2035	18.8334
1723038015.0	80	14.2133	18.7697
1723038021.0	83	14.1755	18.8048
1723038036.0	87	14.1239	18.7510
1723038040.0	84	14.0956	18.7057
1723038041.0	80	14.0843	18.6391
1723038042.0	80	14.0725	18.5714
1723038075.0	77	14.1200	18.7025
1723038078.0	73	14.0971	18.8073
1723038094.0	70	14.0491	18.7724
1723038099.0	67	14.0173	18.7290
1723038113.0	64	13.9686	18.6785
1723038122.0	61	13.9250	18.6182
1723038124.0	58	13.9085	18.5630
1723038132.0	61	13.8677	18.5060
1723038137.0	68	13.8370	18.4446
1723038138.0	75	13.8260	18.3851
1723038139.0	78	13.8147	18.3233
1723038141.0	81	13.7976	18.2623
1723038169.0	78	13.8062	18.3243
1723038188.0	81	13.7695	18.2785
1723038198.0	78	13.7269	18.2332
1723038202.0	75	13.7016	18.1804
1723038218.0	78	13.6598	18.1472
1723038220.0	81	13.6442	18.1237
1723038279.0	78	14.0836	18.6298
1723038304.0	81	14.0702	18.7667
1723038316.0	80	14.0265	18.7360
1723038336.0	75	13.9929	18.6881
1723038339.0	72	13.9730	18.6781
1723038343.0	75	13.9487	18.6205
1723038358.0	78	13.9069	18.5833
1723038361.0	81	13.8872	18.5502
1723038363.0	84	13.8721	18.4941
1723038399.0	81	13.9432	18.6262
1723038405.0	78	13.9127	18.7148
1723038421.0	81	13.8732	18.6750
1723038438.0	78	13.8354	18.6198
1723038456.0	81	13.7998	18.5651
1723038484.0	84	13.8053	18.5266
1723038526.0	81	13.9361	18.5035
1723038546.0	78	13.9047	18.5256
1723038581.0	81	13.9592	18.5072
1723038595.0	84	13.9195	18.5224
1723038604.0	81	13.8845	18.4736
1723038642.0	84	13.9649	18.5498
1723038647.0	79	13.9411	18.6623
1723038651.0	76	13.9210	18.6102
1723038657.0	76	13.8941	18.5591
1723038664.0	81	13.8644	18.5079
1723038665.0	81	13.8575	18.4623
1723038692.0	78	13.8554	18.5118
1723038694.0	75	13.8440	18.5532
1723038695.0	72	13.8370	18.5032
1723038703.0	76	13.8057	18.4605
1723038707.0	79	13.7859	18.4134
1723038730.0	76	13.7671	18.4166
1723038732.0	73	13.7557	18.4312
1723038754.0	77	13.7338	18.4398
1723038757.0	80	13.7185	18.4428
1723038764.0	77	13.6905	18.3970
1723038779.0	85	13.6557	18.3583
1723038780.0	88	13.6490	18.3385
1723038783.0	91	13.6338	18.2919
1723038789.0	88	13.6088	18.2465
1723038793.0	85	13.5899	18.2007
1723038802.0	82	13.5589	18.1581
1723038805.0	79	13.5437	18.1174
1723038861.0	82	13.8437	18.4566
1723038879.0	85	13.8134	18.6047
1723038894.0	82	13.7799	18.5598
1723038909.0	78	13.7466	18.5140
1723038913.0	75	13.7283	18.4846
1723038943.0	72	13.7443	18.5287
1723038947.0	69	13.7264	18.5722
1723038951.0	66	13.7084	18.5273
1723038954.0	63	13.6939	18.4828
1723038968.0	66	13.6613	18.4543
1723038977.0	69	13.6320	18.4135
1723038980.0	73	13.6177	18.3745
1723038983.0	76	13.6034	18.3311
1723038989.0	79	13.5802	18.2891
1723039011.0	82	13.5622	18.2791
1723039017.0	85	13.5394	18.2692
1723039025.0	82	13.5125	18.2273
1723039032.0	79	13.4877	18.1854
1723039035.0	76	13.4738	18.1457
1723039053.0	79	13.4474	18.1326
1723039056.0	82	13.4337	18.1196
1723039110.0	85	13.6824	18.4011
1723039121.0	82	13.6524	18.5851
1723039125.0	79	13.6355	18.5493
1723039130.0	82	13.6158	18.5080
1723039135.0	86	13.5961	18.4668
1723039142.0	89	13.5720	18.4264
1723039144.0	93	13.5616	18.3887
1723039161.0	90	13.5346	18.3752
1723039165.0	87	13.5180	18.3552
1723039167.0	83	13.5078	18.3157
1723039169.0	80	13.4974	18.2760
1723039187.0	77	13.4727	18.2668
1723039203.0	80	13.4454	18.2280
1723039207.0	77	13.4292	18.2060
1723039209.0	74	13.4191	18.1677
1723039218.0	71	13.3930	18.1349
1723039219.0	68	13.3865	18.1040
1723039228.0	73	13.3606	18.0734
1723039236.0	76	13.3361	18.0356
1723039246.0	73	13.3096	17.9985
1723039253.0	77	13.2870	17.9622
1723039254.0	79	13.2806	17.9292
1723039259.0	73	13.2622	17.8941
1723039270.0	76	13.2355	17.8615
1723039293.0	79	13.2252	17.8415
1723039297.0	82	13.2097	17.8463
1723039302.0	85	13.1918	17.8103
1723039314.0	81	13.1653	17.7799
1723039343.0	78	13.1800	17.7768
1723039373.0	81	13.1993	17.7414
1723039446.0	78	13.7084	17.9128
1723039449.0	81	13.6954	18.4130
1723039456.0	84	13.6733	18.3783
1723039474.0	81	13.6503	18.3551
1723039519.0	84	13.7703	18.3969
1723039523.0	79	13.7549	18.5389
1723039563.0	75	13.8307	18.6386
1723039586.0	80	13.8177	18.6325
1723039587.0	80	13.8114	18.6467
1723039591.0	77	13.7963	18.6117
1723039633.0	80	13.8854	18.7244
1723039644.0	83	13.8596	18.7865
1723039657.0	79	13.8333	18.7511
1723039665.0	76	13.8108	18.7181
1723039685.0	79	13.7913	18.6973
1723039718.0	82	13.8188	18.6791
1723039720.0	85	13.8099	18.7404
1723039725.0	81	13.7932	18.7063
1723039748.0	78	13.7807	18.7037
1723039760.0	81	13.7554	18.6810
1723039807.0	84	13.8820	18.7674
1723039819.0	81	13.8568	18.8527
1723039852.0	83	13.8825	18.8610
1723039875.0	80	13.8694	18.8362
1723039880.0	77	13.8534	18.8332
1723039890.0	80	13.8299	18.8015
1723039895.0	83	13.8140	18.7699
1723039908.0	80	13.7892	18.7423
1723039921.0	77	13.7646	18.7087
1723039936.0	80	13.7405	18.6756
1723039939.0	84	13.7298	18.6561
1723039945.0	87	13.7123	18.6238
1723039956.0	83	13.6888	18.5933
1723039974.0	86	13.6676	18.5652
1723039990.0	83	13.6447	18.5329
1723039994.0	80	13.6318	18.5141
1723040006.0	83	13.6084	18.4879
1723040036.0	86	13.6204	18.4862
1723040042.0	87	13.6036	18.5081
1723040056.0	90	13.5803	18.4821
1723040069.0	87	13.5570	18.4505
1723040072.0	83	13.5471	18.4281
1723040087.0	86	13.5245	18.4100
1723040103.0	83	13.5025	18.3788
1723040105.0	79	13.4954	18.3657
1723040127.0	83	13.4823	18.3714
1723040158.0	72	13.4988	18.3479
1723040159.0	73	13.4949	18.3994
1723040211.0	72	13.6562	18.6039
